 Write name of the inputfile - format (x,y,sd)   =>  qmin (min 0.0001) or <enter>                    =>  qmax or <enter>                                 =>  Rebinning points -> number of points used       =>  ndata =           86          86   1000.00000      0.493897587
 ndata2 =           86  0.485367864      0.493897587       8.52971710E-03
 Estimate of maximum diameter d or <enter>       =>  dest =    184.155594
 x(mtot)/x(1) =    57.9031601
 destnew =    95.4121857
 Estimate of vol frac (start max 0.1) or <enter> =>  Estimate Lagr. multiplier log(alpha) or <enter> =>  Enter value for c_smear     =>  Estimate of axial ratio or <enter>              =>  Fit ratio by evidence (E) moments (M) or no (N) =>  Number of points used for p(r)    (50-100)     =>  Number of extra solutions for calc. of errors   =>  Transformation                                         [D]ebye (def), [B]essel, [C]osine, [S]ize, [N]eg. Debye =>  Fitting flat background [N]o or [Y]es (default) =>  Const. rescale (C) (default) or  non-const (N) =>  Minimum number of points per Shannon bin =>  Min Shannon bin size =           10
 Number of data points in data file =           86
 Number of data points after rebin  =           86
 Number of points added (S(q)->1)   =            0


  ite   diam  log(alpha)    chi    axratio    check     backg   -evidence


 nfit =            2

  500  23.02   -12.0000  5788.1724   1.000  -0.6711 -0.2E-06  7479080.5
  500  46.04   -12.0000   896.6378   1.000  -0.7219 -0.6E-07  1170402.9
  500  69.06   -12.0000   171.3769   1.000  -0.4388 -0.4E-07   236144.2
  500  92.08   -12.0000    13.3744   1.000  -0.1998 -0.1E-07    33652.0
  500 115.10   -12.0000     1.9950   1.000  -0.0603 -0.5E-08    19635.9
  500 138.12   -12.0000     0.7204   1.000   0.2192 -0.4E-08    18357.1
  500 161.14   -12.0000     0.5809   1.000   0.2040 -0.3E-08    18288.6
  500 184.16   -12.0000     0.5647   1.000  -0.0553 -0.2E-07    18631.7
  500 207.18   -12.0000     0.5492   1.000  -0.0698 -0.7E-08    19174.1
  500 230.19   -12.0000     0.5442   1.000  -0.0583 -0.6E-08    19739.2
  500 253.21   -12.0000     0.5324   1.000  -0.1039 -0.2E-07    20262.5
  500 276.23   -12.0000     0.5240   1.000  -0.1228 -0.1E-07    20947.9
  500  23.02   -11.0000  5788.1724   1.000  -0.6711 -0.6E-06  7478016.5
  500  46.04   -11.0000   896.6378   1.000  -0.7219 -0.2E-06  1169388.4
  500  69.06   -11.0000   171.3769   1.000  -0.4388 -0.1E-06   235134.9
  500  92.08   -11.0000    13.3744   1.000  -0.1998 -0.4E-07    32685.5
  500 115.10   -11.0000     1.9950   1.000  -0.0603 -0.1E-07    18666.8
  500 138.12   -11.0000     0.7204   1.000   0.2192 -0.1E-07    17294.6
  500 161.14   -11.0000     0.5809   1.000   0.1972 -0.7E-08    17332.2
  500 184.16   -11.0000     0.5647   1.000  -0.0553 -0.6E-07    17585.6
  500 207.18   -11.0000     0.5492   1.000  -0.0697 -0.2E-07    18125.1
  500 230.19   -11.0000     0.5442   1.000  -0.0583 -0.2E-07    18672.2
  500 253.21   -11.0000     0.5324   1.000  -0.1039 -0.5E-07    19217.8
  500 276.23   -11.0000     0.5240   1.000  -0.1228 -0.3E-07    19940.5
  500  23.02   -10.0000  5788.1724   1.000  -0.6711 -0.2E-05  7477041.5
  500  46.04   -10.0000   896.6378   1.000  -0.7219 -0.4E-06  1168422.2
  500  69.06   -10.0000   171.3769   1.000  -0.4388 -0.3E-06   234106.3
  500  92.08   -10.0000    13.3744   1.000  -0.1998 -0.1E-06    31656.4
  500 115.10   -10.0000     1.9950   1.000  -0.0603 -0.3E-07    17622.3
  500 138.12   -10.0000     0.7204   1.000   0.2159 -0.3E-07    16297.2
  500 161.14   -10.0000     0.5809   1.000   0.2026 -0.2E-07    16206.4
  500 184.16   -10.0000     0.5647   1.000  -0.0556 -0.2E-06    16579.3
  500 207.18   -10.0000     0.5492   1.000  -0.0697 -0.5E-07    17185.0
  500 230.19   -10.0000     0.5442   1.000  -0.0584 -0.4E-07    17629.7
  500 253.21   -10.0000     0.5324   1.000  -0.1039 -0.1E-06    18258.1
  500 276.23   -10.0000     0.5240   1.000  -0.1228 -0.9E-07    18929.8
  500  23.02    -9.0000  5788.1729   1.000  -0.6661 -0.4E-05  7475951.0
  500  46.04    -9.0000   896.6378   1.000  -0.7219 -0.1E-05  1167376.8
  500  69.06    -9.0000   171.3769   1.000  -0.4388 -0.8E-06   233168.7
  500  92.08    -9.0000    13.3744   1.000  -0.1996 -0.3E-06    30637.7
  500 115.10    -9.0000     1.9950   1.000  -0.0603 -0.9E-07    16522.0
  500 138.12    -9.0000     0.7204   1.000   0.2159 -0.7E-07    15247.8
  500 161.14    -9.0000     0.5809   1.000   0.1893 -0.5E-07    15327.4
  500 184.16    -9.0000     0.5647   1.000  -0.0553 -0.4E-06    15555.8
  500 207.18    -9.0000     0.5492   1.000  -0.0698 -0.1E-06    16133.1
  500 230.19    -9.0000     0.5442   1.000  -0.0583 -0.1E-06    16624.2
  500 253.21    -9.0000     0.5324   1.000  -0.1039 -0.3E-06    17197.0
  500 276.23    -9.0000     0.5240   1.000  -0.1228 -0.2E-06    17844.4
  500  23.02    -8.0000  5788.1753   1.000  -0.6657 -0.1E-04  7475044.0
  500  46.04    -8.0000   896.6384   1.000  -0.7257 -0.3E-05  1166338.6
  500  69.06    -8.0000   171.3771   1.000  -0.4391 -0.2E-05   232053.2
  500  92.08    -8.0000    13.3744   1.000  -0.2001 -0.8E-06    29657.7
  500 115.10    -8.0000     1.9950   1.000  -0.0604 -0.3E-06    15593.5
  500 138.12    -8.0000     0.7204   1.000   0.2149 -0.2E-06    14336.0
  500 161.14    -8.0000     0.5809   1.000   0.2106 -0.1E-06    14486.9
  500 184.16    -8.0000     0.5647   1.000  -0.0558 -0.1E-05    14605.4
  500 207.18    -8.0000     0.5492   1.000  -0.0699 -0.4E-06    15175.1
  500 230.19    -8.0000     0.5442   1.000  -0.0583 -0.3E-06    15645.7
  500 253.21    -8.0000     0.5324   1.000  -0.1039 -0.9E-06    16210.0
  500 276.23    -8.0000     0.5240   1.000  -0.1228 -0.7E-06    16817.1
  500  23.02    -7.0000  5788.1753   1.000  -0.6638 -0.3E-04  7473988.5
  500  46.04    -7.0000   896.6376   1.000  -0.7122 -0.8E-05  1165311.8
  500  69.06    -7.0000   171.3767   1.000  -0.4391 -0.6E-05   231007.1
  500  92.08    -7.0000    13.3744   1.000  -0.2002 -0.2E-05    28648.2
  500 115.10    -7.0000     1.9950   1.000  -0.0621 -0.7E-06    14639.5
  500 138.12    -7.0000     0.7204   1.000   0.2182 -0.5E-06    13330.5
  500 161.14    -7.0000     0.5809   1.000   0.1973 -0.4E-06    13409.5
  500 184.16    -7.0000     0.5647   1.000  -0.0555 -0.3E-05    13634.7
  500 207.18    -7.0000     0.5492   1.000  -0.0698 -0.1E-05    14260.7
  500 230.19    -7.0000     0.5442   1.000  -0.0583 -0.9E-06    14767.4
  500 253.21    -7.0000     0.5324   1.000  -0.1039 -0.3E-05    15253.2
  500 276.23    -7.0000     0.5240   1.000  -0.1228 -0.2E-05    15858.7
  500  23.02    -6.0000  5788.1738   1.000  -0.6658 -0.9E-04  7472942.0
  500  46.04    -6.0000   896.6375   1.000  -0.7244 -0.2E-04  1164367.1
  500  69.06    -6.0000   171.3769   1.000  -0.4393 -0.2E-04   230050.9
  500  92.08    -6.0000    13.3745   1.000  -0.1994 -0.6E-05    27596.6
  500 115.10    -6.0000     1.9950   1.000  -0.0595 -0.2E-05    13579.1
  500 138.12    -6.0000     0.7204   1.000   0.2179 -0.1E-05    12340.6
  500 161.14    -6.0000     0.5809   1.000   0.1925 -0.1E-05    12452.6
  500 184.16    -6.0000     0.5647   1.000  -0.0557 -0.9E-05    12896.2
  500 207.18    -6.0000     0.5492   1.000  -0.0699 -0.3E-05    13407.4
  500 230.19    -6.0000     0.5442   1.000  -0.0583 -0.2E-05    13946.9
  500 253.21    -6.0000     0.5324   1.000  -0.1038 -0.7E-05    14369.7
  500 276.23    -6.0000     0.5240   1.000  -0.1228 -0.5E-05    14875.0
  500  23.02    -5.0000  5788.1738   1.000  -0.6642 -0.2E-03  7471924.5
  500  46.04    -5.0000   896.6371   1.000  -0.7123 -0.6E-04  1163357.1
  500  69.06    -5.0000   171.3768   1.000  -0.4393 -0.4E-04   229165.4
  500  92.08    -5.0000    13.3744   1.000  -0.1996 -0.2E-04    26736.1
  500 115.10    -5.0000     1.9949   1.000  -0.0599 -0.5E-05    12632.0
  500 138.12    -5.0000     0.7204   1.000   0.2176 -0.4E-05    11463.0
  500 161.14    -5.0000     0.5809   1.000   0.1887 -0.3E-05    11642.1
  500 184.16    -5.0000     0.5647   1.000  -0.0556 -0.2E-04    12044.3
  500 207.18    -5.0000     0.5492   1.000  -0.0698 -0.8E-05    12434.5
  500 230.19    -5.0000     0.5442   1.000  -0.0583 -0.7E-05    13015.0
  500 253.21    -5.0000     0.5324   1.000  -0.1038 -0.2E-04    13501.5
  500 276.23    -5.0000     0.5240   1.000  -0.1228 -0.1E-04    14138.2
  500  23.02    -4.0000  5788.1729   1.000  -0.6677 -0.7E-03  7470939.5
  500  46.04    -4.0000   896.6387   1.000  -0.7240 -0.2E-03  1162382.8
  500  69.06    -4.0000   171.3769   1.000  -0.4393 -0.1E-03   228264.1
  500  92.08    -4.0000    13.3745   1.000  -0.1998 -0.4E-04    25738.8
  500 115.10    -4.0000     1.9950   1.000  -0.0602 -0.1E-04    11791.1
  500 138.12    -4.0000     0.7204   1.000   0.2181 -0.1E-04    10577.8
  500 161.14    -4.0000     0.5809   1.000   0.2102 -0.8E-05    10704.3
  500 184.16    -4.0000     0.5647   1.000  -0.0554 -0.6E-04    11196.7
  500 207.18    -4.0000     0.5492   1.000  -0.0699 -0.2E-04    11648.3
  500 230.19    -4.0000     0.5442   1.000  -0.0584 -0.2E-04    12224.5
  500 253.21    -4.0000     0.5324   1.000  -0.1039 -0.5E-04    12645.4
  500 276.23    -4.0000     0.5240   1.000  -0.1227 -0.4E-04    13262.0
  500  23.02    -3.0000  5788.1768   1.000  -0.6672 -0.2E-02  7469946.0
  500  46.04    -3.0000   896.6378   1.000  -0.7193 -0.5E-03  1161553.6
  500  69.06    -3.0000   171.3768   1.000  -0.4391 -0.3E-03   227557.0
  500  92.08    -3.0000    13.3745   1.000  -0.2000 -0.1E-03    24812.8
  500 115.10    -3.0000     1.9950   1.000  -0.0605 -0.4E-04    10834.9
  500 138.12    -3.0000     0.7204   1.000   0.2200 -0.3E-04     9608.1
  500 161.14    -3.0000     0.5809   1.000   0.2239 -0.2E-04     9852.9
  500 184.16    -3.0000     0.5647   1.000  -0.0551 -0.2E-03    10335.2
  500 207.18    -3.0000     0.5492   1.000  -0.0706 -0.6E-04    10884.9
  500 230.19    -3.0000     0.5442   1.000  -0.0584 -0.5E-04    11326.6
  500 253.21    -3.0000     0.5324   1.000  -0.1039 -0.1E-03    11910.2
  500 276.23    -3.0000     0.5240   1.000  -0.1227 -0.1E-03    12439.6
  500  23.02    -2.0000  5788.1753   1.000  -0.6691 -0.5E-02  7469086.5
  500  46.04    -2.0000   896.6379   1.000  -0.7360 -0.1E-02  1160863.2
  500  69.06    -2.0000   171.3770   1.000  -0.4389 -0.9E-03   226719.1
  500  92.08    -2.0000    13.3744   1.000  -0.1996 -0.3E-03    23970.2
  500 115.10    -2.0000     1.9950   1.000  -0.0609 -0.1E-03     9915.2
  500 138.12    -2.0000     0.7204   1.000   0.2193 -0.8E-04     8841.1
  500 161.14    -2.0000     0.5809   1.000   0.2472 -0.6E-04     8961.0
  500 184.16    -2.0000     0.5647   1.000  -0.0531 -0.5E-03     9496.7
  500 207.18    -2.0000     0.5492   1.000  -0.0719 -0.2E-03    10046.3
  500 230.19    -2.0000     0.5442   1.000  -0.0585 -0.1E-03    10503.8
  500 253.21    -2.0000     0.5324   1.000  -0.1039 -0.4E-03    11149.6
  500 276.23    -2.0000     0.5240   1.000  -0.1228 -0.3E-03    11617.0
  500  23.02    -1.0000  5788.1738   1.000  -0.6688 -0.1E-01  7468520.5
  500  46.04    -1.0000   896.6373   1.000  -0.7269 -0.3E-02  1160300.5
  500  69.06    -1.0000   171.3769   1.000  -0.4391 -0.2E-02   226040.2
  500  92.08    -1.0000    13.3745   1.000  -0.1977 -0.8E-03    23011.9
  500 115.10    -1.0000     1.9950   1.000  -0.0593 -0.3E-03     9075.9
  500 138.12    -1.0000     0.7204   1.000   0.2143 -0.2E-03     7951.4
  500 161.14    -1.0000     0.5809   1.000   0.2271 -0.2E-03     8258.6
  500 184.16    -1.0000     0.5647   1.000  -0.0493 -0.2E-02     8667.5
  500 207.18    -1.0000     0.5492   1.000  -0.0739 -0.4E-03     9272.2
  500 230.19    -1.0000     0.5442   1.000  -0.0588 -0.4E-03     9754.3
  500 253.21    -1.0000     0.5324   1.000  -0.1040 -0.1E-02    10323.4
  500 276.23    -1.0000     0.5240   1.000  -0.1229 -0.7E-03    10786.2
  500  23.02     0.0000  5788.1724   1.000  -0.6746 -0.4E-01  7468236.5
  500  46.04     0.0000   896.6371   1.000  -0.7240 -0.9E-02  1159603.8
  500  69.06     0.0000   171.3767   1.000  -0.4399 -0.6E-02   225311.3
  500  92.08     0.0000    13.3744   1.000  -0.1948 -0.2E-02    22280.6
  500 115.10     0.0000     1.9950   1.000  -0.0600 -0.8E-03     8308.8
  500 138.12     0.0000     0.7204   1.000   0.2133 -0.6E-03     7239.0
  500 161.14     0.0000     0.5809   1.000   0.2169 -0.4E-03     7540.1
  500 184.16     0.0000     0.5646   1.000  -0.0413 -0.9E-02     8058.8
  500 207.18     0.0000     0.5492   1.000  -0.0765 -0.1E-02     8575.4
  500 230.19     0.0000     0.5442   1.000  -0.0590 -0.1E-02     9043.2
  500 253.21     0.0000     0.5323   1.000  -0.1040 -0.3E-02     9509.1
  500 276.23     0.0000     0.5240   1.000  -0.1229 -0.2E-02     9973.5
  500  23.02     1.0000  5788.1709   1.000  -0.6851 -0.1E+00  7468167.0
  500  46.04     1.0000   896.6365   1.000  -0.7256 -0.3E-01  1159149.5
  500  69.06     1.0000   171.3768   1.000  -0.4395 -0.2E-01   224678.2
  500  92.08     1.0000    13.3744   1.000  -0.1880 -0.6E-02    21645.2
  500 115.10     1.0000     1.9950   1.000  -0.0622 -0.2E-02     7710.0
  500 138.12     1.0000     0.7204   1.000   0.2160 -0.2E-02     6619.9
  500 161.14     1.0000     0.5809   1.000   0.2240 -0.1E-02     6957.3
  500 184.16     1.0000     0.5646   1.000  -0.0429 -0.1E-01     7414.7
  500 207.18     1.0000     0.5492   1.000  -0.0935 -0.3E-02     7904.4
  500 230.19     1.0000     0.5442   1.000  -0.0591 -0.3E-02     8385.6
  500 253.21     1.0000     0.5323   1.000  -0.1039 -0.7E-02     8877.0
  500 276.23     1.0000     0.5239   1.000  -0.1229 -0.5E-02     9268.5
  500  23.02     2.0000  5788.1543   1.000  -0.6959 -0.3E+00  7468053.0
  500  46.04     2.0000   896.6356   1.000  -0.7435 -0.7E-01  1158789.4
  500  69.06     2.0000   171.3763   1.000  -0.4407 -0.5E-01   224147.3
  500  92.08     2.0000    13.3744   1.000  -0.1795 -0.2E-01    21139.8
  500 115.10     2.0000     1.9949   1.000  -0.0590 -0.6E-02     7197.8
  500 138.12     2.0000     0.7204   1.000   0.2182 -0.4E-02     6133.7
  500 161.14     2.0000     0.5809   1.000   0.2151 -0.3E-02     6432.6
  500 184.16     2.0000     0.5645   1.000  -0.0457 -0.2E-01     6841.7
  500 207.18     2.0000     0.5492   1.000  -0.1036 -0.7E-02     7327.4
  500 230.19     2.0000     0.5441   1.000  -0.0579 -0.7E-02     7781.2
  500 253.21     2.0000     0.5322   1.000  -0.1038 -0.2E-01     8172.3
  500 276.23     2.0000     0.5239   1.000  -0.1222 -0.1E-01     8552.1
  500  23.02     3.0000  5788.1226   1.000  -0.7055 -0.7E+00  7467936.0
  500  46.04     3.0000   896.6313   1.000  -0.7361 -0.2E+00  1158602.0
  500  69.06     3.0000   171.3748   1.000  -0.4401 -0.1E+00   223827.8
  500  92.08     3.0000    13.3742   1.000  -0.1774 -0.5E-01    20755.8
  500 115.10     3.0000     1.9950   1.000  -0.0601 -0.2E-01     6744.9
  500 138.12     3.0000     0.7204   1.000   0.2215 -0.1E-01     5664.9
  500 161.14     3.0000     0.5809   1.000   0.2374 -0.8E-02     5911.2
  500 184.16     3.0000     0.5644   1.000  -0.0618 -0.3E-01     6363.3
  500 207.18     3.0000     0.5491   1.000  -0.1023 -0.2E-01     6721.2
  500 230.19     3.0000     0.5440   1.000  -0.0559 -0.2E-01     7133.2
  500 253.21     3.0000     0.5320   1.000  -0.1022 -0.4E-01     7507.9
  500 276.23     3.0000     0.5237   1.000  -0.1199 -0.4E-01     7882.9
  500  23.02     4.0000  5788.0259   1.000  -0.7210 -0.2E+01  7467779.5
  500  46.04     4.0000   896.6194   1.000  -0.7633 -0.5E+00  1158512.9
  500  69.06     4.0000   171.3707   1.000  -0.4571 -0.3E+00   223678.3
  500  92.08     4.0000    13.3740   1.000  -0.1759 -0.1E+00    20525.8
  500 115.10     4.0000     1.9950   1.000  -0.0558 -0.4E-01     6413.9
  500 138.12     4.0000     0.7204   1.000   0.2348 -0.3E-01     5278.1
  500 161.14     4.0000     0.5810   1.000   0.2394 -0.2E-01     5456.3
  500 184.16     4.0000     0.5644   1.000  -0.1129 -0.4E-01     5888.2
  500 207.18     4.0000     0.5490   1.000  -0.0900 -0.4E-01     6239.0
  500 230.19     4.0000     0.5436   1.000  -0.0506 -0.5E-01     6570.5
  500 253.21     4.0000     0.5316   1.000  -0.0962 -0.1E+00     6874.7
  500 276.23     4.0000     0.5234   1.000  -0.1131 -0.1E+00     7209.6
  500  23.02     5.0000  5787.7095   1.000  -0.8089 -0.5E+01  7467405.5
  500  46.04     5.0000   896.5910   1.000  -0.6914 -0.1E+01  1158398.4
  500  69.06     5.0000   171.3622   1.000  -0.4518 -0.9E+00   223529.0
  500  92.08     5.0000    13.3738   1.000  -0.1738 -0.3E+00    20315.6
  500 115.10     5.0000     1.9950   1.000  -0.0453 -0.1E+00     6134.2
  500 138.12     5.0000     0.7205   1.000   0.2582 -0.8E-01     4958.3
  500 161.14     5.0000     0.5811   1.000   0.4783 -0.4E-01     5086.0
  500 184.16     5.0000     0.5641   1.000  -0.1597 -0.8E-01     5429.2
  500 207.18     5.0000     0.5486   1.000  -0.0692 -0.1E+00     5736.9
  500 230.19     5.0000     0.5429   1.000  -0.0390 -0.1E+00     5983.8
  500 253.21     5.0000     0.5309   1.000  -0.0724 -0.2E+00     6280.2
  500 276.23     5.0000     0.5227   1.000  -0.0962 -0.3E+00     6562.3
  500  23.02     6.0000  5786.7788   1.000  -0.7123 -0.1E+02  7466419.5
  500  46.04     6.0000   896.3869   1.000  -0.6422 -0.4E+01  1158096.5
  500  69.06     6.0000   171.3316   1.000  -0.4867 -0.3E+01   223372.8
  500  92.08     6.0000    13.3732   1.000  -0.1680 -0.9E+00    20112.0
  500 115.10     6.0000     1.9950   1.000  -0.0144 -0.3E+00     5873.0
  500 138.12     6.0000     0.7216   1.000   0.3470 -0.2E+00     4631.0
  500 161.14     6.0000     0.5815   1.000   0.7990 -0.8E-01     4747.7
  500 184.16     6.0000     0.5637   1.000  -0.1473 -0.2E+00     5008.2
  500 207.18     6.0000     0.5474   1.000  -0.0423 -0.2E+00     5254.1
  500 230.19     6.0000     0.5419   1.000  -0.0042 -0.3E+00     5457.4
  500 253.21     6.0000     0.5305   1.000   0.0041 -0.4E+00     5718.6
  500 276.23     6.0000     0.5225   1.000  -0.0117 -0.4E+00     5927.8
  500  23.02     7.0000  5786.5425   1.000  -0.4313 -0.4E+02  7466870.0
  500  46.04     7.0000   896.1945   1.000  -0.6574 -0.1E+02  1157938.8
  500  69.06     7.0000   171.3021   1.000  -0.4308 -0.7E+01   223299.9
  500  92.08     7.0000    13.3738   1.000  -0.1027 -0.2E+01    19941.0
  500 115.10     7.0000     1.9953   1.000   0.1016 -0.8E+00     5617.0
  500 138.12     7.0000     0.7246   1.000   0.5219 -0.3E+00     4324.7
  500 161.14     7.0000     0.5825   1.000   0.7905 -0.1E+00     4390.4
  500 184.16     7.0000     0.5627   1.000  -0.0549 -0.3E+00     4586.1
  500 207.18     7.0000     0.5453   1.000   0.0123 -0.5E+00     4785.5
  500 230.19     7.0000     0.5407   1.000   0.0567 -0.6E+00     4936.4
  500 253.21     7.0000     0.5302   1.000   0.1020 -0.7E+00     5136.5
  500 276.23     7.0000     0.5233   1.000   0.1164 -0.8E+00     5293.1
  500  23.02     8.0000  5780.6772   1.000  -0.4659 -0.1E+03  7461372.5
  500  46.04     8.0000   895.4585   1.000  -0.6699 -0.3E+02  1157405.1
  500  69.06     8.0000   171.0770   1.000  -0.4520 -0.2E+02   223187.7
  500  92.08     8.0000    13.3761   1.000  -0.0130 -0.6E+01    19833.9
  500 115.10     8.0000     2.0079   1.000   0.4956 -0.1E+01     5394.8
  500 138.12     8.0000     0.7331   1.000   0.6937 -0.3E+00     4024.8
  500 161.14     8.0000     0.5840   1.000   0.8574 -0.3E+00     4034.8
  500 184.16     8.0000     0.5621   1.000   0.2545 -0.6E+00     4170.8
  500 207.18     8.0000     0.5393   1.000   0.2311 -0.9E+00     4322.0
  500 230.19     8.0000     0.5406   1.000   0.2271 -0.1E+01     4418.2
  500 253.21     8.0000     0.5249   1.000   0.3042 -0.1E+01     4579.1
  500 276.23     8.0000     0.5200   1.000   0.3405 -0.1E+01     4686.4
  500  23.02     9.0000  5766.1924   1.000  -0.5757 -0.3E+03  7448042.5
  500  46.04     9.0000   894.1762   1.000  -0.6386 -0.7E+02  1156929.1
  500  69.06     9.0000   170.9747   1.000  -0.2042 -0.5E+02   223707.1
  500  92.08     9.0000    13.4022   1.000   0.5453 -0.1E+02    19899.3
  500 115.10     9.0000     2.0527   1.000   0.8029 -0.3E+01     5232.3
  500 138.12     9.0000     0.7427   1.000   0.8676 -0.4E+00     3721.9
  433 161.14     9.0000     0.5872   1.000   0.9021 -0.5E+00      123.0
  500 184.16     9.0000     0.5982   1.000   0.7557 -0.8E+00     3794.0
  500 207.18     9.0000     0.5790   1.000   0.5577 -0.1E+01     3878.5
  500 230.19     9.0000     0.5763   1.000   0.6257 -0.2E+01     3943.0
  500 253.21     9.0000     0.5435   1.000   0.7576 -0.2E+01     4020.1
  500 276.23     9.0000     0.5388   1.000   0.6964 -0.2E+01     4130.0
  500  23.02    10.0000  5744.5278   1.000  -0.5459 -0.7E+03  7433467.5
  500  46.04    10.0000   892.3928   1.000  -0.6234 -0.2E+03  1157790.5
  500  69.06    10.0000   170.7568   1.000   0.1738 -0.1E+03   225027.2
  100  92.08    10.0000    13.9208   1.000   0.9311 -0.2E+02      686.9
  356 115.10    10.0000     2.1655   1.000   0.9004 -0.3E+01      171.1
  194 138.12    10.0000     0.7509   1.000   0.9004 -0.7E+00      114.4
  251 161.14    10.0000     0.5952   1.000   0.9001 -0.1E+01      112.3
  125 184.16    10.0000     0.6005   1.000   0.9013 -0.2E+01      115.1
  113 207.18    10.0000     0.6047   1.000   0.9052 -0.2E+01      117.5
  500 230.19    10.0000     0.5957   1.000   0.7343 -0.2E+01     3562.2
  144 253.21    10.0000     0.6075   1.000   0.9084 -0.4E+01      121.8
  130 276.23    10.0000     0.5921   1.000   0.9027 -0.4E+01      125.1
  500  23.02    11.0000  5707.8589   1.000  -0.6942 -0.2E+04  7412446.0
  500  46.04    11.0000   895.6510   1.000  -0.0018 -0.3E+03  1166420.9
  500  69.06    11.0000   174.4045   1.000   0.8460 -0.2E+03   231592.8
  122  92.08    11.0000    14.6619   1.000   0.9002 -0.3E+02      718.8
  100 115.10    11.0000     2.2978   1.000   0.9093 -0.3E+01      168.2
  100 138.12    11.0000     0.7591   1.000   0.9280 -0.2E+01      105.8
  112 161.14    11.0000     0.6124   1.000   0.9002 -0.3E+01      103.5
  100 184.16    11.0000     0.6178   1.000   0.9080 -0.4E+01      106.6
  104 207.18    11.0000     0.6221   1.000   0.9040 -0.5E+01      109.5
  122 230.19    11.0000     0.6242   1.000   0.9016 -0.6E+01      112.0
  109 253.21    11.0000     0.6320   1.000   0.9003 -0.7E+01      115.1
  110 276.23    11.0000     0.6171   1.000   0.9016 -0.9E+01      117.7
  500  23.02    12.0000  5620.3545   1.000  -0.5501 -0.3E+04  7353577.0
  433  46.04    12.0000   909.7844   1.000   0.9023 -0.4E+03    39596.7
  216  69.06    12.0000   182.0700   1.000   0.9007 -0.2E+03     8063.6
  100  92.08    12.0000    15.8573   1.000   0.9032 -0.3E+02      765.3
  100 115.10    12.0000     2.3849   1.000   0.9796 -0.4E+01      164.8
  100 138.12    12.0000     0.7725   1.000   0.9635 -0.4E+01       99.3
  100 161.14    12.0000     0.6297   1.000   0.9422 -0.6E+01       97.3
  100 184.16    12.0000     0.6363   1.000   0.9355 -0.8E+01      101.4
  100 207.18    12.0000     0.6420   1.000   0.9290 -0.1E+02      105.7
  100 230.19    12.0000     0.6484   1.000   0.9074 -0.1E+02      109.7
  114 253.21    12.0000     0.6509   1.000   0.9010 -0.2E+02      113.4
  150 276.23    12.0000     0.6311   1.000   0.9003 -0.2E+02      115.2
  500  23.02    13.0000  5693.1924   1.000   0.4684 -0.5E+04  7492252.5
  274  46.04    13.0000   931.5925   1.000   0.9000 -0.4E+03    40490.5
  100  69.06    13.0000   190.1099   1.000   0.9977 -0.2E+03     8403.2
  100  92.08    13.0000    17.3351   1.000   0.9584 -0.3E+02      820.5
  100 115.10    13.0000     2.4792   1.000   0.9722 -0.7E+01      163.9
  100 138.12    13.0000     0.8039   1.000   0.9697 -0.9E+01       97.0
  100 161.14    13.0000     0.6456   1.000   0.9629 -0.1E+02       96.2
  100 184.16    13.0000     0.6573   1.000   0.9537 -0.2E+02      103.1
  100 207.18    13.0000     0.6654   1.000   0.9293 -0.2E+02      110.5
  100 230.19    13.0000     0.6768   1.000   0.9070 -0.3E+02      117.5
  130 253.21    13.0000     0.6739   1.000   0.9002 -0.3E+02      122.5
  197 276.23    13.0000     0.6510   1.000   0.9001 -0.3E+02      124.1
  100  23.02    14.0000  5896.9355   1.000   0.9437 -0.4E+04   257693.4
  174  46.04    14.0000   960.2845   1.000   0.9012 -0.3E+03    41642.9
  100  69.06    14.0000   200.5829   1.000   0.9667 -0.2E+03     8844.0
  100  92.08    14.0000    18.8373   1.000   0.9580 -0.3E+02      877.2
  100 115.10    14.0000     2.5964   1.000   0.9327 -0.1E+02      167.3
  100 138.12    14.0000     0.8630   1.000   0.9462 -0.2E+02      101.4
  100 161.14    14.0000     0.6672   1.000   0.9601 -0.3E+02      103.4
  100 184.16    14.0000     0.7001   1.000   0.9624 -0.4E+02      116.7
  100 207.18    14.0000     0.7418   1.000   0.9496 -0.5E+02      131.7
  100 230.19    14.0000     0.7940   1.000   0.9382 -0.6E+02      147.1
  100 253.21    14.0000     0.8562   1.000   0.9208 -0.7E+02      162.8
  100 276.23    14.0000     0.8952   1.000   0.9002 -0.8E+02      176.9
  100  23.02    15.0000  6178.6582   1.000   0.9824 -0.4E+04   269245.2
  100  46.04    15.0000   991.8339   1.000   0.9481 -0.2E+03    42922.3
  100  69.06    15.0000   215.2088   1.000   0.9676 -0.1E+03     9437.2
  100  92.08    15.0000    20.5399   1.000   0.9393 -0.3E+02      945.0
  100 115.10    15.0000     2.7319   1.000   0.9076 -0.2E+02      174.6
  100 138.12    15.0000     0.9523   1.000   0.9246 -0.3E+02      111.3
  100 161.14    15.0000     0.7258   1.000   0.9445 -0.5E+02      117.9
  100 184.16    15.0000     0.8811   1.000   0.9585 -0.6E+02      144.3
  100 207.18    15.0000     1.1172   1.000   0.9597 -0.9E+02      177.4
  100 230.19    15.0000     1.3685   1.000   0.9557 -0.1E+03      213.4
  100 253.21    15.0000     1.6479   1.000   0.9440 -0.1E+03      252.2
  100 276.23    15.0000     1.8736   1.000   0.9256 -0.2E+03      291.6
  100  23.02    16.0000  6627.9609   1.000   0.9960 -0.3E+04   287770.7
  100  46.04    16.0000  1023.4919   1.000   0.9984 -0.2E+03    44240.9
  100  69.06    16.0000   231.4852   1.000   0.9767 -0.1E+03    10093.4
  100  92.08    16.0000    22.8166   1.000   0.9419 -0.3E+02     1038.2
  100 115.10    16.0000     2.8750   1.000   0.9238 -0.3E+02      182.3
  100 138.12    16.0000     1.1123   1.000   0.9451 -0.4E+02      123.2
  100 161.14    16.0000     1.1827   1.000   0.9572 -0.6E+02      147.8
  100 184.16    16.0000     1.9919   1.000   0.9621 -0.9E+02      209.8
  100 207.18    16.0000     3.0356   1.000   0.9618 -0.1E+03      288.1
  100 230.19    16.0000     4.0247   1.000   0.9555 -0.2E+03      371.5
  100 253.21    16.0000     4.9990   1.000   0.9421 -0.2E+03      462.9
  100 276.23    16.0000     5.7665   1.000   0.9275 -0.3E+03      554.0
  100  23.02    17.0000  7405.9155   1.000   0.9541 -0.2E+04   320414.1
  100  46.04    17.0000  1070.3710   1.000   0.9969 -0.1E+03    46201.5
  100  69.06    17.0000   250.7780   1.000   0.9932 -0.8E+02    10892.5
  100  92.08    17.0000    26.4413   1.000   0.9819 -0.3E+02     1195.6
  100 115.10    17.0000     3.3376   1.000   0.9817 -0.4E+02      214.4
  100 138.12    17.0000     2.7981   1.000   0.9781 -0.7E+02      218.6
  100 161.14    17.0000     5.0281   1.000   0.9748 -0.1E+03      350.0
  100 184.16    17.0000     8.2772   1.000   0.9747 -0.1E+03      534.1
  100 207.18    17.0000    11.6222   1.000   0.9753 -0.2E+03      732.0
  100 230.19    17.0000    14.4200   1.000   0.9749 -0.3E+03      917.2
  100 253.21    17.0000    16.7916   1.000   0.9723 -0.3E+03     1096.2
  100 276.23    17.0000    18.5431   1.000   0.9686 -0.4E+03     1261.6
  100  23.02    18.0000  8297.3066   1.000   0.9530 -0.3E+04   359726.3
  100  46.04    18.0000  1130.2992   1.000   0.9993 -0.9E+02    48717.9
  100  69.06    18.0000   283.8346   1.000   0.9979 -0.7E+02    12296.5
  100  92.08    18.0000    33.8546   1.000   0.9950 -0.5E+02     1534.5
  100 115.10    18.0000     6.7441   1.000   0.9933 -0.9E+02      404.2
  100 138.12    18.0000    14.0107   1.000   0.9805 -0.1E+03      773.8
  100 161.14    18.0000    23.9442   1.000   0.9810 -0.2E+03     1274.4
  100 184.16    18.0000    32.8666   1.000   0.9846 -0.3E+03     1748.7
  100 207.18    18.0000    39.8512   1.000   0.9882 -0.4E+03     2158.9
  100 230.19    18.0000    44.7443   1.000   0.9913 -0.5E+03     2499.9
  100 253.21    18.0000    48.2250   1.000   0.9936 -0.7E+03     2802.2
  100 276.23    18.0000    50.6187   1.000   0.9951 -0.9E+03     3080.7
  100  23.02    19.0000  9081.8594   1.000   0.9852 -0.7E+04   397932.6
  100  46.04    19.0000  1195.2019   1.000   0.9973 -0.5E+02    51469.3
  100  69.06    19.0000   333.8973   1.000   0.9912 -0.7E+02    14454.9
  100  92.08    19.0000    46.8017   1.000   0.9863 -0.1E+03     2140.1
  100 115.10    19.0000    26.0627   1.000   0.9835 -0.2E+03     1324.8
  100 138.12    19.0000    57.1577   1.000   0.9809 -0.3E+03     2773.7
  100 161.14    19.0000    81.9372   1.000   0.9843 -0.4E+03     3983.8
  100 184.16    19.0000    96.8376   1.000   0.9886 -0.6E+03     4803.7
  100 207.18    19.0000   104.7516   1.000   0.9921 -0.8E+03     5361.5
  100 230.19    19.0000   108.6461   1.000   0.9944 -0.1E+04     5788.3
  100 253.21    19.0000   110.9726   1.000   0.9957 -0.1E+04     6192.6
  100 276.23    19.0000   112.9126   1.000   0.9965 -0.2E+04     6626.5
  100  23.02    20.0000 10561.2422   1.000   0.9884 -0.5E+04   459375.1
  100  46.04    20.0000  1240.9417   1.000   0.9766 -0.4E+02    53425.3
  100  69.06    20.0000   432.2266   1.000   0.9518 -0.1E+03    18741.4
  100  92.08    20.0000   135.9694   1.000   0.9505 -0.2E+03     6104.9
  100 115.10    20.0000   124.2013   1.000   0.9662 -0.4E+03     5738.3
  100 138.12    20.0000   173.1968   1.000   0.9778 -0.6E+03     8036.1
  100 161.14    20.0000   205.5169   1.000   0.9851 -0.8E+03     9678.8
  100 184.16    20.0000   221.8497   1.000   0.9900 -0.1E+04    10699.6
  100 207.18    20.0000   231.0154   1.000   0.9927 -0.2E+04    11480.9
  100 230.19    20.0000   237.9582   1.000   0.9939 -0.2E+04    12238.4
  100 253.21    20.0000   245.2346   1.000   0.9943 -0.3E+04    13086.0
  100 276.23    20.0000   253.5243   1.000   0.9946 -0.3E+04    14054.6
  100  23.02    21.0000 12210.4707   1.000   0.9781 -0.4E+04   529375.9
  134  46.04    21.0000  1289.9028   1.000   0.9006 -0.1E+03    55632.7
  101  69.06    21.0000   929.3391   1.000   0.9002 -0.3E+03    40283.6
  100  92.08    21.0000   629.4807   1.000   0.9216 -0.5E+03    27619.6
  100 115.10    21.0000   482.0542   1.000   0.9480 -0.7E+03    21501.5
  100 138.12    21.0000   426.8016   1.000   0.9698 -0.1E+04    19407.6
  100 161.14    21.0000   421.9032   1.000   0.9794 -0.1E+04    19574.5
  100 184.16    21.0000   449.0436   1.000   0.9826 -0.2E+04    21225.3
  100 207.18    21.0000   491.2503   1.000   0.9835 -0.2E+04    23637.1
  100 230.19    21.0000   536.1086   1.000   0.9839 -0.3E+04    26284.1
  100 253.21    21.0000   579.0397   1.000   0.9845 -0.4E+04    28978.8
  100 276.23    21.0000   619.7996   1.000   0.9856 -0.5E+04    31714.8
  100  23.02    22.0000 15858.4141   1.000   0.9767 -0.2E+05   706006.3
  285  46.04    22.0000  1322.2826   1.000   0.9005 -0.7E+03    57547.4
  187  69.06    22.0000  1330.4395   1.000   0.9001 -0.7E+03    57938.2
  108  92.08    22.0000  1838.0576   1.000   0.9004 -0.9E+03    79940.4
  100 115.10    22.0000  1726.2247   1.000   0.9456 -0.2E+04    75916.4
  100 138.12    22.0000  1695.1809   1.000   0.9597 -0.3E+04    75491.0
  100 161.14    22.0000  1845.5789   1.000   0.9615 -0.4E+04    83025.4
  100 184.16    22.0000  2074.7520   1.000   0.9621 -0.5E+04    94124.8
  100 207.18    22.0000  2311.0593   1.000   0.9631 -0.6E+04   105722.7
  100 230.19    22.0000  2526.3518   1.000   0.9649 -0.8E+04   116622.1
  100 253.21    22.0000  2720.4976   1.000   0.9676 -0.1E+05   126828.1
  100 276.23    22.0000  2904.1460   1.000   0.9708 -0.1E+05   136798.2
  100  23.02    23.0000 42522.4492   1.000   0.9751 -0.2E+06  1979394.4
  500  46.04    23.0000  1416.4067   1.000   0.8586 -0.2E+04  1876929.0
  419  69.06    23.0000  1620.8304   1.000   0.9002 -0.1E+04    70847.5
  136  92.08    23.0000  4981.6235   1.000   0.9012 -0.1E+04   215443.7
  100 115.10    23.0000 10776.0957   1.000   0.9228 -0.3E+04   466334.8
  100 138.12    23.0000 14789.1641   1.000   0.9562 -0.5E+04   640565.2
  100 161.14    23.0000 18425.6172   1.000   0.9701 -0.6E+04   798640.6
  100 184.16    23.0000 21510.4004   1.000   0.9770 -0.8E+04   932981.0
  100 207.18    23.0000 24029.3789   1.000   0.9808 -0.1E+05  1042944.9
  100 230.19    23.0000 26057.4805   1.000   0.9832 -0.1E+05  1131734.2
  100 253.21    23.0000 27701.2422   1.000   0.9850 -0.1E+05  1203926.9
  100 276.23    23.0000 29053.9043   1.000   0.9867 -0.1E+05  1263534.5
  100  23.02    24.0000 **********   1.000   0.9614 -0.4E+06  6462586.5
  500  46.04    24.0000  1733.8020   1.000   0.5388 -0.6E+04  2406675.0
  500  69.06    24.0000  2747.0637   1.000   0.8327 -0.4E+03  3556611.0
  202  92.08    24.0000  8612.5186   1.000   0.9002 -0.9E+03   371263.7
  140 115.10    24.0000 17724.2090   1.000   0.9005 -0.1E+04   763628.2
  111 138.12    24.0000 26376.2305   1.000   0.9022 -0.2E+04  1135922.5
  100 161.14    24.0000 32643.0254   1.000   0.9190 -0.2E+04  1405560.2
  100 184.16    24.0000 36617.0938   1.000   0.9434 -0.2E+04  1576680.2
  100 207.18    24.0000 39459.1719   1.000   0.9570 -0.2E+04  1699091.4
  100 230.19    24.0000 41443.4102   1.000   0.9654 -0.3E+04  1784596.1
  100 253.21    24.0000 42828.6680   1.000   0.9711 -0.3E+04  1844336.0
  100 276.23    24.0000 43812.1953   1.000   0.9754 -0.3E+04  1886797.6

 Using alpha_est =    13.5000000      and d_max =    161.136139

  100 161.14    13.5000     0.6548   1.000   0.9647 -0.2E+02       98.6
  100 161.14    13.5000     0.6548   1.000   0.9647 -0.2E+02       98.6
  100 170.34    13.5000     0.6600   1.000   0.9639 -0.2E+02      102.3
  100 146.24    13.5000     0.7228   1.000   0.9625 -0.1E+02       96.2
  100 145.32    13.5000     0.7321   1.000   0.9623 -0.1E+02       96.3
  100 146.24    13.5000     0.7228   1.000   0.9625 -0.1E+02       96.2
  100 151.93    13.5000     0.6684   1.000   0.9643 -0.2E+02       95.9
  100 155.45    13.5000     0.6560   1.000   0.9643 -0.2E+02       96.6
  100 150.08    13.5000     0.6830   1.000   0.9641 -0.2E+02       95.9
  100 150.77    13.5000     0.6769   1.000   0.9642 -0.2E+02       95.9
  100 150.87    13.5000     0.6761   1.000   0.9642 -0.2E+02       95.9
  100 150.86    13.5000     0.6762   1.000   0.9641 -0.2E+02       95.9
  100 151.27    13.5000     0.6729   1.000   0.9641 -0.2E+02       95.9
  100 151.02    13.5000     0.6748   1.000   0.9641 -0.2E+02       95.9
  100 151.12    13.5000     0.6741   1.000   0.9641 -0.2E+02       95.9
  100 150.99    13.5000     0.6751   1.000   0.9641 -0.2E+02       95.9
  100 151.06    13.5000     0.6745   1.000   0.9643 -0.2E+02       95.9
  100 151.04    13.5000     0.6747   1.000   0.9641 -0.2E+02       95.9
  100 151.05    13.5000     0.6747   1.000   0.9643 -0.2E+02       95.9
  100 151.04    13.5000     0.6747   1.000   0.9641 -0.2E+02       95.9
  100 151.04    13.6000     0.6773   1.000   0.9625 -0.2E+02       96.5
  100 151.04    13.3382     0.6707   1.000   0.9661 -0.1E+02       95.1
  100 151.04    12.8523     0.6587   1.000   0.9668 -0.1E+02       94.1
  100 151.04    12.0662     0.6383   1.000   0.9560 -0.5E+01       95.7
  100 151.04    12.8523     0.6587   1.000   0.9668 -0.1E+02       94.1
  100 151.04    12.5520     0.6511   1.000   0.9645 -0.8E+01       94.3
  100 151.04    13.0379     0.6633   1.000   0.9671 -0.1E+02       94.3
  100 151.04    12.7901     0.6572   1.000   0.9666 -0.9E+01       94.1
  100 151.04    12.7934     0.6573   1.000   0.9665 -0.1E+02       94.1
  100 151.04    12.7894     0.6572   1.000   0.9665 -0.9E+01       94.1
  100 151.04    12.6987     0.6549   1.000   0.9658 -0.9E+01       94.1
  100 151.04    12.7547     0.6563   1.000   0.9663 -0.9E+01       94.1
  100 151.04    12.7761     0.6568   1.000   0.9664 -0.9E+01       94.1
  100 151.04    12.7843     0.6570   1.000   0.9663 -0.9E+01       94.1
  100 151.04    12.7874     0.6571   1.000   0.9665 -0.9E+01       94.1
  100 151.04    12.7862     0.6571   1.000   0.9665 -0.9E+01       94.1
  100 151.04    12.7882     0.6571   1.000   0.9664 -0.9E+01       94.1
  100 151.04    12.7882     0.6571   1.000   0.9664 -0.9E+01       94.1

  ite   diam  log(alpha)    chi    axratio    check     backg   -evidence

  Calculating errors in           2  points
  using        -480  points
  100 151.04    12.7882     0.6571   1.000   0.9664 -0.9E+01       94.1
  100 155.57    12.7882     0.6421   1.000   0.9630 -0.1E+02       94.5
  100 151.04    13.1718     0.6666   1.000   0.9668 -0.1E+02       94.6
  100 151.04    12.7882     0.6571   1.000   0.9664 -0.9E+01       94.1
  100 151.04    12.7882     0.6571   1.000   0.9664 -0.9E+01       94.1
  100 136.40    12.7882     0.8413   1.000   0.9723 -0.8E+01       98.7
  100 130.40    12.7882     1.1801   1.000   0.9748 -0.7E+01      111.9

  Rg  ax ratio  backg   Chi  log(alpha)   eta      d     I(0)  evidence
 38.89  6.75 -.23E-03   0.658   12.833  0.000 151.17 .307E-01     94.11
  0.05  0.06 0.17E-11   0.009    0.202  0.000   1.11 .177E-04      0.48

 p(r) in               :  pr.d
 Fit of data in        :  fit.d
 Data used in          :  data.d
 Error-rescaled data in:  rescale.d
 Scale factor(s) in    :  scale_factor.d
 Parameters in         :  parameters.d

 CPU time used         :    19.6 seconds
 end
